T[s],S(t)
0.000,0.00
0.001,374.57
0.002,735.87
0.003,1071.09
0.004,1368.38
0.005,1617.23
0.006,1808.86
0.007,1936.55
0.008,1995.85
0.009,1984.74
0.010,1903.72
0.011,1755.73
0.012,1546.11
0.013,1282.33
0.014,973.76
0.015,631.33
0.016,267.08
0.017,-106.18
0.018,-475.41
0.019,-827.76
0.020,-1151.04
0.021,-1434.11
0.022,-1667.31
0.023,-1842.75
0.024,-1954.59
0.025,-1999.21
0.026,-1975.36
0.027,-1884.11
0.028,-1728.85
0.029,-1515.15
0.030,-1250.50
0.031,-944.08
0.032,-606.41
0.033,-248.98
0.034,116.15
0.035,476.77
0.036,820.93
0.037,1137.32
0.038,1415.68
0.039,1647.10
0.040,1824.27
0.041,1941.78
0.042,1996.18
0.043,1986.13
0.044,1912.38
0.045,1777.72
0.046,1586.87
0.047,1346.28
0.048,1063.88
0.049,748.87
0.050,411.32
0.051,61.90
0.052,-288.51
0.053,-629.12
0.054,-949.61
0.055,-1240.39
0.056,-1492.94
0.057,-1700.00
0.058,-1855.77
0.059,-1956.10
0.060,-1998.54
0.061,-1982.37
0.062,-1908.61
0.063,-1779.96
0.064,-1600.65
0.065,-1376.31
0.066,-1113.76
0.067,-820.79
0.068,-505.92
0.069,-178.12
0.070,153.40
0.071,479.52
0.072,791.44
0.073,1080.89
0.074,1340.36
0.075,1563.30
0.076,1744.25
0.077,1878.95
0.078,1964.47
0.079,1999.19
0.080,1982.84
0.081,1916.46
0.082,1802.35
0.083,1643.96
0.084,1445.76
0.085,1213.13
0.086,952.17
0.087,669.53
0.088,372.24
0.089,67.54
0.090,-237.34
0.091,-535.32
0.092,-819.65
0.093,-1084.03
0.094,-1322.80
0.095,-1530.98
0.096,-1704.42
0.097,-1839.81
0.098,-1934.80
0.099,-1987.94
0.100,-1998.74
0.101,-1967.61
0.102,-1895.86
0.103,-1785.59
0.104,-1639.66
0.105,-1461.57
0.106,-1255.40
0.107,-1025.68
0.108,-777.26
0.109,-515.27
0.110,-244.94
0.111,28.49
0.112,299.85
0.113,564.16
0.114,816.71
0.115,1053.13
0.116,1269.50
0.117,1462.32
0.118,1628.67
0.119,1766.13
0.120,1872.88
0.121,1947.67
0.122,1989.84
0.123,1999.28
0.124,1976.45
0.125,1922.31
0.126,1838.28
0.127,1726.25
0.128,1588.47
0.129,1427.53
0.130,1246.29
0.131,1047.83
0.132,835.40
0.133,612.35
0.134,382.06
0.135,147.94
0.136,-86.68
0.137,-318.56
0.138,-544.62
0.139,-761.94
0.140,-967.83
0.141,-1159.83
0.142,-1335.75
0.143,-1493.69
0.144,-1632.04
0.145,-1749.49
0.146,-1845.05
0.147,-1918.01
0.148,-1967.98
0.149,-1994.84
0.150,-1998.79
0.151,-1980.24
0.152,-1939.88
0.153,-1878.61
0.154,-1797.54
0.155,-1697.95
0.156,-1581.30
0.157,-1449.16
0.158,-1303.23
0.159,-1145.27
0.160,-977.12
0.161,-800.66
0.162,-617.77
0.163,-430.36
0.164,-240.28
0.165,-49.35
0.166,140.64
0.167,328.02
0.168,511.15
0.169,688.53
0.170,858.74
0.171,1020.50
0.172,1172.60
0.173,1314.02
0.174,1443.81
0.175,1561.19
0.176,1665.49
0.177,1756.16
0.178,1832.81
0.179,1895.14
0.180,1943.00
0.181,1976.33
0.182,1995.20
0.183,1999.78
0.184,1990.33
0.185,1967.21
0.186,1930.86
0.187,1881.80
0.188,1820.61
0.189,1747.96
0.190,1664.54
0.191,1571.10
0.192,1468.44
0.193,1357.37
0.194,1238.75
0.195,1113.44
0.196,982.32
0.197,846.27
0.198,706.19
0.199,562.95
0.200,417.42
0.201,270.46
0.202,122.91
0.203,-24.42
0.204,-170.75
0.205,-315.30
0.206,-457.36
0.207,-596.23
0.208,-731.25
0.209,-861.81
0.210,-987.32
0.211,-1107.25
0.212,-1221.11
0.213,-1328.43
0.214,-1428.81
0.215,-1521.88
0.216,-1607.30
0.217,-1684.80
0.218,-1754.13
0.219,-1815.10
0.220,-1867.54
0.221,-1911.32
0.222,-1946.38
0.223,-1972.66
0.224,-1990.16
0.225,-1998.90
0.226,-1998.94
0.227,-1990.39
0.228,-1973.35
0.229,-1948.01
0.230,-1914.52
0.231,-1873.12
0.232,-1824.03
0.233,-1767.52
0.234,-1703.88
0.235,-1633.40
0.236,-1556.42
0.237,-1473.29
0.238,-1384.36
0.239,-1290.02
0.240,-1190.66
0.241,-1086.69
0.242,-978.53
0.243,-866.62
0.244,-751.38
0.245,-633.28
0.246,-512.77
0.247,-390.31
0.248,-266.36
0.249,-141.41
0.250,-15.93
0.251,109.62
0.252,234.75
0.253,359.00
0.254,481.88
0.255,602.93
0.256,721.69
0.257,837.69
0.258,950.49
0.259,1059.64
0.260,1164.71
0.261,1265.28
0.262,1360.93
0.263,1451.27
0.264,1535.91
0.265,1614.48
0.266,1686.64
0.267,1752.04
0.268,1810.39
0.269,1861.39
0.270,1904.76
0.271,1940.28
0.272,1967.71
0.273,1986.86
0.274,1997.58
0.275,1999.73
0.276,1993.20
0.277,1977.93
0.278,1953.88
0.279,1921.04
0.280,1879.46
0.281,1829.21
0.282,1770.39
0.283,1703.17
0.284,1627.72
0.285,1544.27
0.286,1453.12
0.287,1354.56
0.288,1248.96
0.289,1136.72
0.290,1018.29
0.291,894.14
0.292,764.81
0.293,630.86
0.294,492.91
0.295,351.59
0.296,207.60
0.297,61.66
0.298,-85.49
0.299,-233.06
0.300,-380.25
0.301,-526.22
0.302,-670.13
0.303,-811.09
0.304,-948.25
0.305,-1080.70
0.306,-1207.57
0.307,-1327.97
0.308,-1441.03
0.309,-1545.91
0.310,-1641.76
0.311,-1727.79
0.312,-1803.25
0.313,-1867.40
0.314,-1919.60
0.315,-1959.22
0.316,-1985.74
0.317,-1998.70
0.318,-1997.71
0.319,-1982.48
0.320,-1952.83
0.321,-1908.65
0.322,-1849.98
0.323,-1776.94
0.324,-1689.79
0.325,-1588.90
0.326,-1474.78
0.327,-1348.07
0.328,-1209.52
0.329,-1060.03
0.330,-900.62
0.331,-732.43
0.332,-556.74
0.333,-374.92
0.334,-188.48
0.335,1.01
0.336,191.86
0.337,382.33
0.338,570.60
0.339,754.81
0.340,933.08
0.341,1103.51
0.342,1264.23
0.343,1413.39
0.344,1549.19
0.345,1669.92
0.346,1773.98
0.347,1859.87
0.348,1926.28
0.349,1972.04
0.350,1996.19
0.351,1998.00
0.352,1976.97
0.353,1932.86
0.354,1865.71
0.355,1775.83
0.356,1663.85
0.357,1530.69
0.358,1377.57
0.359,1206.04
0.360,1017.93
0.361,815.34
0.362,600.67
0.363,376.56
0.364,145.87
0.365,-88.36
0.366,-322.92
0.367,-554.49
0.368,-779.70
0.369,-995.15
0.370,-1197.46
0.371,-1383.37
0.372,-1549.74
0.373,-1693.65
0.374,-1812.44
0.375,-1903.76
0.376,-1965.64
0.377,-1996.52
0.378,-1995.32
0.379,-1961.46
0.380,-1894.91
0.381,-1796.17
0.382,-1666.34
0.383,-1507.12
0.384,-1320.75
0.385,-1110.05
0.386,-878.36
0.387,-629.50
0.388,-367.74
0.389,-97.71
0.390,175.68
0.391,447.30
0.392,711.90
0.393,964.25
0.394,1199.18
0.395,1411.77
0.396,1597.39
0.397,1751.83
0.398,1871.44
0.399,1953.19
0.400,1994.78
0.401,1994.68
0.402,1952.27
0.403,1867.80
0.404,1742.46
0.405,1578.40
0.406,1378.67
0.407,1147.22
0.408,888.82
0.409,608.98
0.410,313.84
0.411,10.05
0.412,-295.38
0.413,-595.24
0.414,-882.27
0.415,-1149.38
0.416,-1389.80
0.417,-1597.26
0.418,-1766.21
0.419,-1891.92
0.420,-1970.67
0.421,-1999.86
0.422,-1978.12
0.423,-1905.38
0.424,-1782.93
0.425,-1613.36
0.426,-1400.60
0.427,-1149.81
0.428,-867.29
0.429,-560.31
0.430,-236.97
0.431,94.04
0.432,423.65
0.433,742.66
0.434,1042.01
0.435,1313.05
0.436,1547.77
0.437,1739.08
0.438,1881.04
0.439,1969.03
0.440,1999.97
0.441,1972.40
0.442,1886.59
0.443,1744.55
0.444,1550.01
0.445,1308.37
0.446,1026.52
0.447,712.70
0.448,376.23
0.449,27.30
0.450,-323.40
0.451,-664.99
0.452,-986.70
0.453,-1278.27
0.454,-1530.27
0.455,-1734.41
0.456,-1883.84
0.457,-1973.38
0.458,-1999.74
0.459,-1961.64
0.460,-1859.89
0.461,-1697.41
0.462,-1479.13
0.463,-1211.90
0.464,-904.22
0.465,-566.07
0.466,-208.51
0.467,156.63
0.468,517.16
0.469,860.96
0.470,1176.35
0.471,1452.52
0.472,1679.92
0.473,1850.61
0.474,1958.50
0.475,1999.64
0.476,1972.36
0.477,1877.31
0.478,1717.54
0.479,1498.32
0.480,1227.04
0.481,912.96
0.482,566.86
0.483,200.71
0.484,-172.76
0.485,-540.52
0.486,-889.66
0.487,-1207.91
0.488,-1484.00
0.489,-1708.14
0.490,-1872.35
0.491,-1970.74
0.492,-1999.72
0.493,-1958.18
0.494,-1847.51
0.495,-1671.55
0.496,-1436.46
0.497,-1150.52
0.498,-823.84
0.499,-467.97
0.500,-95.52
0.501,280.31
0.502,646.22
0.503,989.22
0.504,1297.18
0.505,1559.22
0.506,1766.09
0.507,1910.51
0.508,1987.44
0.509,1994.24
0.510,1930.76
0.511,1799.35
0.512,1604.73
0.513,1353.87
0.514,1055.68
0.515,720.73
0.516,360.83
0.517,-11.38
0.518,-382.87
0.519,-740.69
0.520,-1072.44
0.521,-1366.69
0.522,-1613.36
0.523,-1804.08
0.524,-1932.48
0.525,-1994.37
0.526,-1987.87
0.527,-1913.48
0.528,-1774.01
0.529,-1574.50
0.530,-1321.96
0.531,-1025.18
0.532,-694.38
0.533,-340.84
0.534,23.49
0.535,386.41
0.536,735.84
0.537,1060.30
0.538,1349.21
0.539,1593.28
0.540,1784.81
0.541,1917.85
0.542,1988.47
0.543,1994.77
0.544,1936.99
0.545,1817.41
0.546,1640.26
0.547,1411.59
0.548,1138.97
0.549,831.31
0.550,498.48
0.551,151.04
0.552,-200.15
0.553,-544.24
0.554,-870.78
0.555,-1169.95
0.556,-1432.93
0.557,-1652.14
0.558,-1821.38
0.559,-1936.07
0.560,-1993.33
0.561,-1991.99
0.562,-1932.64
0.563,-1817.58
0.564,-1650.63
0.565,-1437.11
0.566,-1183.55
0.567,-897.51
0.568,-587.35
0.569,-261.97
0.570,69.47
0.571,397.82
0.572,714.15
0.573,1010.04
0.574,1277.78
0.575,1510.54
0.576,1702.59
0.577,1849.35
0.578,1947.55
0.579,1995.23
0.580,1991.78
0.581,1937.92
0.582,1835.64
0.583,1688.09
0.584,1499.51
0.585,1275.06
0.586,1020.67
0.587,742.88
0.588,448.63
0.589,145.12
0.590,-160.40
0.591,-460.78
0.592,-749.19
0.593,-1019.20
0.594,-1264.96
0.595,-1481.32
0.596,-1663.92
0.597,-1809.22
0.598,-1914.63
0.599,-1978.47
0.600,-2000.00
0.601,-1979.42
0.602,-1917.80
0.603,-1817.06
0.604,-1679.86
0.605,-1509.56
0.606,-1310.10
0.607,-1085.90
0.608,-841.75
0.609,-582.71
0.610,-314.00
0.611,-40.86
0.612,231.51
0.613,498.06
0.614,754.02
0.615,994.93
0.616,1216.72
0.617,1415.82
0.618,1589.13
0.619,1734.11
0.620,1848.79
0.621,1931.77
0.622,1982.25
0.623,1999.97
0.624,1985.25
0.625,1938.93
0.626,1862.32
0.627,1757.20
0.628,1625.71
0.629,1470.38
0.630,1294.01
0.631,1099.61
0.632,890.41
0.633,669.73
0.634,440.96
0.635,207.49
0.636,-27.31
0.637,-260.19
0.638,-488.01
0.639,-707.81
0.640,-916.83
0.641,-1112.57
0.642,-1292.76
0.643,-1455.43
0.644,-1598.89
0.645,-1721.75
0.646,-1822.93
0.647,-1901.67
0.648,-1957.49
0.649,-1990.21
0.650,-1999.94
0.651,-1987.04
0.652,-1952.13
0.653,-1896.07
0.654,-1819.90
0.655,-1724.88
0.656,-1612.41
0.657,-1484.05
0.658,-1341.45
0.659,-1186.37
0.660,-1020.62
0.661,-846.09
0.662,-664.66
0.663,-478.21
0.664,-288.63
0.665,-97.75
0.666,92.64
0.667,280.84
0.668,465.19
0.669,644.17
0.670,816.33
0.671,980.34
0.672,1135.00
0.673,1279.22
0.674,1412.04
0.675,1532.64
0.676,1640.31
0.677,1734.48
0.678,1814.72
0.679,1880.70
0.680,1932.24
0.681,1969.25
0.682,1991.78
0.683,1999.96
0.684,1994.03
0.685,1974.34
0.686,1941.30
0.687,1895.41
0.688,1837.24
0.689,1767.43
0.690,1686.67
0.691,1595.70
0.692,1495.30
0.693,1386.29
0.694,1269.50
0.695,1145.80
0.696,1016.07
0.697,881.19
0.698,742.05
0.699,599.53
0.700,454.50
0.701,307.82
0.702,160.34
0.703,12.88
0.704,-133.78
0.705,-278.85
0.706,-421.61
0.707,-561.35
0.708,-697.41
0.709,-829.15
0.710,-956.00
0.711,-1077.39
0.712,-1192.84
0.713,-1301.86
0.714,-1404.03
0.715,-1498.98
0.716,-1586.38
0.717,-1665.91
0.718,-1737.34
0.719,-1800.44
0.720,-1855.05
0.721,-1901.04
0.722,-1938.32
0.723,-1966.83
0.724,-1986.55
0.725,-1997.51
0.726,-1999.75
0.727,-1993.36
0.728,-1978.47
0.729,-1955.21
0.730,-1923.77
0.731,-1884.36
0.732,-1837.19
0.733,-1782.54
0.734,-1720.68
0.735,-1651.90
0.736,-1576.54
0.737,-1494.93
0.738,-1407.44
0.739,-1314.43
0.740,-1216.31
0.741,-1113.47
0.742,-1006.34
0.743,-895.33
0.744,-780.90
0.745,-663.48
0.746,-543.53
0.747,-421.52
0.748,-297.91
0.749,-173.17
0.750,-47.78
0.751,77.80
0.752,203.08
0.753,327.60
0.754,450.87
0.755,572.43
0.756,691.81
0.757,808.56
0.758,922.21
0.759,1032.33
0.760,1138.48
0.761,1240.22
0.762,1337.16
0.763,1428.88
0.764,1515.00
0.765,1595.15
0.766,1668.96
0.767,1736.11
0.768,1796.28
0.769,1849.17
0.770,1894.50
0.771,1932.03
0.772,1961.53
0.773,1982.80
0.774,1995.67
0.775,2000.00
0.776,1995.68
0.777,1982.63
0.778,1960.81
0.779,1930.20
0.780,1890.83
0.781,1842.77
0.782,1786.11
0.783,1721.00
0.784,1647.62
0.785,1566.18
0.786,1476.95
0.787,1380.24
0.788,1276.39
0.789,1165.79
0.790,1048.88
0.791,926.13
0.792,798.07
0.793,665.23
0.794,528.24
0.795,387.71
0.796,244.33
0.797,98.82
0.798,-48.10
0.799,-195.64
0.800,-343.01
0.801,-489.37
0.802,-633.88
0.803,-775.67
0.804,-913.87
0.805,-1047.60
0.806,-1175.97
0.807,-1298.09
0.808,-1413.10
0.809,-1520.13
0.810,-1618.35
0.811,-1706.95
0.812,-1785.15
0.813,-1852.24
0.814,-1907.53
0.815,-1950.39
0.816,-1980.28
0.817,-1996.72
0.818,-1999.30
0.819,-1987.70
0.820,-1961.72
0.821,-1921.23
0.822,-1866.23
0.823,-1796.81
0.824,-1713.21
0.825,-1615.76
0.826,-1504.95
0.827,-1381.36
0.828,-1245.73
0.829,-1098.92
0.830,-941.92
0.831,-775.84
0.832,-601.93
0.833,-421.53
0.834,-236.11
0.835,-47.24
0.836,143.43
0.837,334.16
0.838,523.16
0.839,708.58
0.840,888.54
0.841,1061.14
0.842,1224.50
0.843,1376.76
0.844,1516.11
0.845,1640.82
0.846,1749.25
0.847,1839.88
0.848,1911.35
0.849,1962.44
0.850,1992.15
0.851,1999.69
0.852,1984.49
0.853,1946.24
0.854,1884.91
0.855,1800.75
0.856,1694.30
0.857,1566.40
0.858,1418.21
0.859,1251.19
0.860,1067.09
0.861,867.96
0.862,656.12
0.863,434.14
0.864,204.84
0.865,-28.79
0.866,-263.58
0.867,-496.23
0.868,-723.38
0.869,-941.62
0.870,-1147.58
0.871,-1337.95
0.872,-1509.56
0.873,-1659.43
0.874,-1784.83
0.875,-1883.31
0.876,-1952.82
0.877,-1991.69
0.878,-1998.70
0.879,-1973.15
0.880,-1914.86
0.881,-1824.20
0.882,-1702.13
0.883,-1550.17
0.884,-1370.44
0.885,-1165.61
0.886,-938.90
0.887,-694.01
0.888,-435.10
0.889,-166.70
0.890,106.31
0.891,378.87
0.892,645.75
0.893,901.70
0.894,1141.53
0.895,1360.24
0.896,1553.11
0.897,1715.82
0.898,1844.58
0.899,1936.18
0.900,1988.13
0.901,1998.70
0.902,1967.03
0.903,1893.15
0.904,1778.01
0.905,1623.52
0.906,1432.50
0.907,1208.67
0.908,956.61
0.909,681.65
0.910,389.78
0.911,87.53
0.912,-218.16
0.913,-520.12
0.914,-811.08
0.915,-1083.90
0.916,-1331.71
0.917,-1548.09
0.918,-1727.29
0.919,-1864.36
0.920,-1955.30
0.921,-1997.24
0.922,-1988.48
0.923,-1928.61
0.924,-1818.57
0.925,-1660.63
0.926,-1458.38
0.927,-1216.68
0.928,-941.56
0.929,-640.04
0.930,-320.05
0.931,9.86
0.932,340.69
0.933,663.26
0.934,968.44
0.935,1247.45
0.936,1492.09
0.937,1695.02
0.938,1849.99
0.939,1952.02
0.940,1997.64
0.941,1984.95
0.942,1913.79
0.943,1785.72
0.944,1604.05
0.945,1373.75
0.946,1101.37
0.947,794.81
0.948,463.16
0.949,116.39
0.950,-234.89
0.951,-579.82
0.952,-907.57
0.953,-1207.71
0.954,-1470.59
0.955,-1687.58
0.956,-1851.44
0.957,-1956.55
0.958,-1999.14
0.959,-1977.39
0.960,-1891.59
0.961,-1744.13
0.962,-1539.43
0.963,-1283.86
0.964,-985.55
0.965,-654.12
0.966,-300.39
0.967,63.98
0.968,426.84
0.969,776.01
0.970,1099.67
0.971,1386.74
0.972,1627.34
0.973,1813.06
0.974,1937.34
0.975,1995.66
0.976,1985.76
0.977,1907.70
0.978,1763.93
0.979,1559.17
0.980,1300.29
0.981,996.10
0.982,657.02
0.983,294.78
0.984,-78.07
0.985,-448.51
0.986,-803.57
0.987,-1130.76
0.988,-1418.54
0.989,-1656.69
0.990,-1836.74
0.991,-1952.25
0.992,-1999.04
0.993,-1975.36
0.994,-1881.95
0.995,-1722.05
0.996,-1501.25
0.997,-1227.32
0.998,-909.93
0.999,-560.31
1.000,-190.83
1.001,185.41
1.002,555.09
1.003,905.09
1.004,1223.02
1.005,1497.65
1.006,1719.28
1.007,1880.11
1.008,1974.50
1.009,1999.20
1.010,1953.43
1.011,1838.88
1.012,1659.72
1.013,1422.35
1.014,1135.22
1.015,808.52
1.016,453.77
1.017,83.46
1.018,-289.44
1.019,-651.93
1.020,-991.43
1.021,-1296.20
1.022,-1555.80
1.023,-1761.40
1.024,-1906.09
1.025,-1985.11
1.026,-1996.00
1.027,-1938.65
1.028,-1815.30
1.029,-1630.42
1.030,-1390.56
1.031,-1104.09
1.032,-780.89
1.033,-432.00
1.034,-69.25
1.035,295.18
1.036,649.15
1.037,980.98
1.038,1279.84
1.039,1536.08
1.040,1741.57
1.041,1889.90
1.042,1976.61
1.043,1999.28
1.044,1957.62
1.045,1853.38
1.046,1690.33
1.047,1474.06
1.048,1211.80
1.049,912.12
1.050,584.70
1.051,239.94
1.052,-111.33
1.053,-458.24
1.054,-790.18
1.055,-1097.17
1.056,-1370.11
1.057,-1601.06
1.058,-1783.47
1.059,-1912.34
1.060,-1984.34
1.061,-1997.87
1.062,-1953.09
1.063,-1851.85
1.064,-1697.61
1.065,-1495.33
1.066,-1251.24
1.067,-972.67
1.068,-667.81
1.069,-345.43
1.070,-14.65
1.071,315.34
1.072,635.54
1.073,937.38
1.074,1212.93
1.075,1455.16
1.076,1658.01
1.077,1816.62
1.078,1927.37
1.079,1987.98
1.080,1997.48
1.081,1956.26
1.082,1866.01
1.083,1729.58
1.084,1550.95
1.085,1335.07
1.086,1087.67
1.087,815.17
1.088,524.41
1.089,222.57
1.090,-83.12
1.091,-385.47
1.092,-677.54
1.093,-952.79
1.094,-1205.22
1.095,-1429.49
1.096,-1621.02
1.097,-1776.06
1.098,-1891.78
1.099,-1966.27
1.100,-1998.55
1.101,-1988.58
1.102,-1937.22
1.103,-1846.17
1.104,-1717.93
1.105,-1555.68
1.106,-1363.21
1.107,-1144.84
1.108,-905.28
1.109,-649.53
1.110,-382.77
1.111,-110.26
1.112,162.79
1.113,431.28
1.114,690.36
1.115,935.49
1.116,1162.49
1.117,1367.66
1.118,1547.77
1.119,1700.14
1.120,1822.66
1.121,1913.78
1.122,1972.54
1.123,1998.57
1.124,1992.02
1.125,1953.61
1.126,1884.53
1.127,1786.44
1.128,1661.42
1.129,1511.88
1.130,1340.57
1.131,1150.44
1.132,944.69
1.133,726.60
1.134,499.56
1.135,266.96
1.136,32.18
1.137,-201.49
1.138,-430.88
1.139,-652.98
1.140,-864.99
1.141,-1064.32
1.142,-1248.65
1.143,-1415.93
1.144,-1564.40
1.145,-1692.60
1.146,-1799.37
1.147,-1883.86
1.148,-1945.52
1.149,-1984.10
1.150,-1999.63
1.151,-1992.42
1.152,-1963.02
1.153,-1912.23
1.154,-1841.05
1.155,-1750.69
1.156,-1642.50
1.157,-1518.02
1.158,-1378.86
1.159,-1226.78
1.160,-1063.56
1.161,-891.08
1.162,-711.22
1.163,-525.87
1.164,-336.91
1.165,-146.18
1.166,44.50
1.167,233.41
1.168,418.89
1.169,599.37
1.170,773.39
1.171,939.59
1.172,1096.73
1.173,1243.69
1.174,1379.48
1.175,1503.25
1.176,1614.26
1.177,1711.90
1.178,1795.71
1.179,1865.33
1.180,1920.54
1.181,1961.24
1.182,1987.43
1.183,1999.23
1.184,1996.86
1.185,1980.62
1.186,1950.92
1.187,1908.23
1.188,1853.12
1.189,1786.20
1.190,1708.15
1.191,1619.70
1.192,1521.61
1.193,1414.70
1.194,1299.81
1.195,1177.78
1.196,1049.49
1.197,915.84
1.198,777.69
1.199,635.94
1.200,491.47
1.201,345.13
1.202,197.77
1.203,50.23
1.204,-96.70
1.205,-242.25
1.206,-385.66
1.207,-526.23
1.208,-663.28
1.209,-796.18
1.210,-924.32
1.211,-1047.15
1.212,-1164.15
1.213,-1274.84
1.214,-1378.79
1.215,-1475.61
1.216,-1564.95
1.217,-1646.50
1.218,-1720.00
1.219,-1785.23
1.220,-1842.01
1.221,-1890.20
1.222,-1929.69
1.223,-1960.43
1.224,-1982.38
1.225,-1995.55
1.226,-2000.00
1.227,-1995.79
1.228,-1983.04
1.229,-1961.89
1.230,-1932.51
1.231,-1895.10
1.232,-1849.87
1.233,-1797.09
1.234,-1737.03
1.235,-1669.98
1.236,-1596.26
1.237,-1516.20
1.238,-1430.16
1.239,-1338.52
1.240,-1241.66
1.241,-1139.98
1.242,-1033.89
1.243,-923.83
1.244,-810.22
1.245,-693.51
1.246,-574.17
1.247,-452.64
1.248,-329.39
1.249,-204.89
1.250,-79.61
1.251,45.96
1.252,171.37
1.253,296.12
1.254,419.75
1.255,541.79
1.256,661.77
1.257,779.22
1.258,893.70
1.259,1004.76
1.260,1111.96
1.261,1214.86
1.262,1313.05
1.263,1406.14
1.264,1493.71
1.265,1575.41
1.266,1650.86
1.267,1719.73
1.268,1781.70
1.269,1836.46
1.270,1883.73
1.271,1923.26
1.272,1954.82
1.273,1978.19
1.274,1993.21
1.275,1999.72
1.276,1997.60
1.277,1986.77
1.278,1967.17
1.279,1938.79
1.280,1901.64
1.281,1855.78
1.282,1801.29
1.283,1738.31
1.284,1667.00
1.285,1587.58
1.286,1500.30
1.287,1405.45
1.288,1303.38
1.289,1194.46
1.290,1079.10
1.291,957.79
1.292,831.02
1.293,699.34
1.294,563.34
1.295,423.65
1.296,280.93
1.297,135.88
1.298,-10.75
1.299,-158.21
1.300,-305.70
1.301,-452.39
1.302,-597.45
1.303,-740.02
1.304,-879.21
1.305,-1014.16
1.306,-1143.97
1.307,-1267.76
1.308,-1384.65
1.309,-1493.79
1.310,-1594.32
1.311,-1685.43
1.312,-1766.34
1.313,-1836.32
1.314,-1894.66
1.315,-1940.73
1.316,-1973.96
1.317,-1993.85
1.318,-1999.97
1.319,-1992.00
1.320,-1969.68
1.321,-1932.87
1.322,-1881.55
1.323,-1815.77
1.324,-1735.74
1.325,-1641.76
1.326,-1534.28
1.327,-1413.87
1.328,-1281.22
1.329,-1137.16
1.330,-982.64
1.331,-818.76
1.332,-646.71
1.333,-467.82
1.334,-283.53
1.335,-95.38
1.336,95.00
1.337,285.88
1.338,475.50
1.339,662.00
1.340,843.52
1.341,1018.16
1.342,1184.05
1.343,1339.29
1.344,1482.09
1.345,1610.67
1.346,1723.38
1.347,1818.66
1.348,1895.11
1.349,1951.47
1.350,1986.69
1.351,1999.91
1.352,1990.52
1.353,1958.13
1.354,1902.64
1.355,1824.23
1.356,1723.36
1.357,1600.81
1.358,1457.64
1.359,1295.24
1.360,1115.29
1.361,919.76
1.362,710.91
1.363,491.24
1.364,263.52
1.365,30.69
1.366,-204.11
1.367,-437.62
1.368,-666.48
1.369,-887.30
1.370,-1096.69
1.371,-1291.32
1.372,-1467.98
1.373,-1623.64
1.374,-1755.48
1.375,-1861.00
1.376,-1938.04
1.377,-1984.81
1.378,-1999.99
1.379,-1982.73
1.380,-1932.73
1.381,-1850.21
1.382,-1735.99
1.383,-1591.43
1.384,-1418.51
1.385,-1219.77
1.386,-998.27
1.387,-757.61
1.388,-501.84
1.389,-235.40
1.390,36.91
1.391,310.07
1.392,578.89
1.393,838.11
1.394,1082.51
1.395,1307.03
1.396,1506.88
1.397,1677.63
1.398,1815.33
1.399,1916.62
1.400,1978.82
1.401,2000.00
1.402,1979.08
1.403,1915.85
1.404,1811.03
1.405,1666.29
1.406,1484.21
1.407,1268.30
1.408,1022.93
1.409,753.23
1.410,465.05
1.411,164.79
1.412,-140.71
1.413,-444.30
1.414,-738.73
1.415,-1016.82
1.416,-1271.59
1.417,-1496.52
1.418,-1685.65
1.419,-1833.82
1.420,-1936.78
1.421,-1991.36
1.422,-1995.54
1.423,-1948.60
1.424,-1851.12
1.425,-1705.04
1.426,-1513.62
1.427,-1281.40
1.428,-1014.12
1.429,-718.59
1.430,-402.49
1.431,-74.26
1.432,257.21
1.433,582.74
1.434,893.18
1.435,1179.63
1.436,1433.72
1.437,1647.87
1.438,1815.52
1.439,1931.37
1.440,1991.54
1.441,1993.72
1.442,1937.31
1.443,1823.43
1.444,1654.95
1.445,1436.43
1.446,1174.02
1.447,875.31
1.448,549.11
1.449,205.19
1.450,-145.97
1.451,-493.55
1.452,-826.66
1.453,-1134.76
1.454,-1407.94
1.455,-1637.31
1.456,-1815.25
1.457,-1935.70
1.458,-1994.39
1.459,-1989.02
1.460,-1919.32
1.461,-1787.15
1.462,-1596.44
1.463,-1353.07
1.464,-1064.74
1.465,-740.73
1.466,-391.57
1.467,-28.77
1.468,335.63
1.469,689.42
1.470,1020.63
1.471,1317.97
1.472,1571.21
1.473,1771.55
1.474,1911.92
1.475,1987.27
1.476,1994.76
1.477,1933.85
1.478,1806.39
1.479,1616.53
1.480,1370.61
1.481,1076.98
1.482,745.69
1.483,388.16
1.484,16.78
1.485,-355.51
1.486,-715.68
1.487,-1051.08
1.488,-1349.88
1.489,-1601.49
1.490,-1796.97
1.491,-1929.34
1.492,-1993.82
1.493,-1988.04
1.494,-1912.10
1.495,-1768.63
1.496,-1562.62
1.497,-1301.32
1.498,-993.94
1.499,-651.36
1.500,-285.70
1.501,90.09
1.502,462.69
1.503,818.88
1.504,1146.07
1.505,1432.67
1.506,1668.56
1.507,1845.43
1.508,1957.07
1.509,1999.62
1.510,1971.65
1.511,1874.25
1.512,1710.96
1.513,1487.62
1.514,1212.22
1.515,894.50
1.516,545.72
1.517,178.14
1.518,-195.35
1.519,-561.69
1.520,-908.17
1.521,-1222.79
1.522,-1494.75
1.523,-1714.78
1.524,-1875.46
1.525,-1971.46
1.526,-1999.74
1.527,-1959.57
1.528,-1852.62
1.529,-1682.81
1.530,-1456.17
1.531,-1180.63
1.532,-865.74
1.533,-522.27
1.534,-161.89
1.535,203.27
1.536,561.02
1.537,899.53
1.538,1207.72
1.539,1475.61
1.540,1694.64
1.541,1857.97
1.542,1960.62
1.543,1999.65
1.544,1974.21
1.545,1885.57
1.546,1736.97
1.547,1533.58
1.548,1282.21
1.549,991.14
1.550,669.80
1.551,328.42
1.552,-22.23
1.553,-371.26
1.554,-707.98
1.555,-1022.20
1.556,-1304.57
1.557,-1546.85
1.558,-1742.10
1.559,-1884.94
1.560,-1971.58
1.561,-1999.99
1.562,-1969.89
1.563,-1882.70
1.564,-1741.49
1.565,-1550.86
1.566,-1316.71
1.567,-1046.15
1.568,-747.14
1.569,-428.35
1.570,-98.83
1.571,232.23
1.572,555.74
1.573,863.01
1.574,1145.94
1.575,1397.24
1.576,1610.58
1.577,1780.81
1.578,1903.97
1.579,1977.43
1.580,1999.91
1.581,1971.45
1.582,1893.40
1.583,1768.34
1.584,1599.99
1.585,1393.04
1.586,1153.05
1.587,886.28
1.588,599.49
1.589,299.77
1.590,-5.63
1.591,-309.50
1.592,-604.81
1.593,-884.92
1.594,-1143.67
1.595,-1375.55
1.596,-1575.76
1.597,-1740.36
1.598,-1866.28
1.599,-1951.35
1.600,-1994.37
1.601,-1995.07
1.602,-1954.08
1.603,-1872.90
1.604,-1753.81
1.605,-1599.85
1.606,-1414.65
1.607,-1202.42
1.608,-967.77
1.609,-715.64
1.610,-451.18
1.611,-179.63
1.612,93.77
1.613,363.89
1.614,625.80
1.615,874.88
1.616,1106.85
1.617,1317.88
1.618,1504.62
1.619,1664.25
1.620,1794.51
1.621,1893.71
1.622,1960.74
1.623,1995.07
1.624,1996.73
1.625,1966.31
1.626,1904.86
1.627,1813.96
1.628,1695.55
1.629,1551.98
1.630,1385.92
1.631,1200.27
1.632,998.17
1.633,782.89
1.634,557.80
1.635,326.29
1.636,91.75
1.637,-142.51
1.638,-373.28
1.639,-597.50
1.640,-812.32
1.641,-1015.10
1.642,-1203.44
1.643,-1375.23
1.644,-1528.62
1.645,-1662.08
1.646,-1774.37
1.647,-1864.57
1.648,-1932.06
1.649,-1976.50
1.650,-1997.86
1.651,-1996.38
1.652,-1972.54
1.653,-1927.09
1.654,-1860.97
1.655,-1775.35
1.656,-1671.55
1.657,-1551.04
1.658,-1415.45
1.659,-1266.47
1.660,-1105.91
1.661,-935.60
1.662,-757.43
1.663,-573.29
1.664,-385.07
1.665,-194.62
1.666,-3.76
1.667,185.76
1.668,372.26
1.669,554.15
1.670,729.94
1.671,898.25
1.672,1057.80
1.673,1207.44
1.674,1346.15
1.675,1473.04
1.676,1587.35
1.677,1688.43
1.678,1775.78
1.679,1849.03
1.680,1907.91
1.681,1952.29
1.682,1982.16
1.683,1997.59
1.684,1998.78
1.685,1986.03
1.686,1959.70
1.687,1920.26
1.688,1868.24
1.689,1804.26
1.690,1728.96
1.691,1643.07
1.692,1547.36
1.693,1442.61
1.694,1329.65
1.695,1209.35
1.696,1082.57
1.697,950.19
1.698,813.10
1.699,672.18
1.700,528.32
1.701,382.37
1.702,235.19
1.703,87.62
1.704,-59.54
1.705,-205.51
1.706,-349.53
1.707,-490.89
1.708,-628.90
1.709,-762.90
1.710,-892.31
1.711,-1016.53
1.712,-1135.06
1.713,-1247.39
1.714,-1353.09
1.715,-1451.75
1.716,-1543.01
1.717,-1626.57
1.718,-1702.14
1.719,-1769.48
1.720,-1828.42
1.721,-1878.80
1.722,-1920.51
1.723,-1953.47
1.724,-1977.64
1.725,-1993.04
1.726,-1999.69
1.727,-1997.67
1.728,-1987.08
1.729,-1968.04
1.730,-1940.73
1.731,-1905.33
1.732,-1862.07
1.733,-1811.18
1.734,-1752.94
1.735,-1687.63
1.736,-1615.57
1.737,-1537.08
1.738,-1452.53
1.739,-1362.27
1.740,-1266.70
1.741,-1166.20
1.742,-1061.19
1.743,-952.09
1.744,-839.34
1.745,-723.38
1.746,-604.66
1.747,-483.64
1.748,-360.78
1.749,-236.55
1.750,-111.43
1.751,14.11
1.752,139.61
1.753,264.57
1.754,388.53
1.755,511.01
1.756,631.56
1.757,749.70
1.758,864.98
1.759,976.94
1.760,1085.16
1.761,1189.19
1.762,1288.62
1.763,1383.04
1.764,1472.04
1.765,1555.26
1.766,1632.33
1.767,1702.91
1.768,1766.65
1.769,1823.27
1.770,1872.47
1.771,1913.98
1.772,1947.58
1.773,1973.05
1.774,1990.20
1.775,1998.88
1.776,1998.96
1.777,1990.34
1.778,1972.98
1.779,1946.82
1.780,1911.89
1.781,1868.23
1.782,1815.92
1.783,1755.07
1.784,1685.86
1.785,1608.48
1.786,1523.16
1.787,1430.21
1.788,1329.93
1.789,1222.71
1.790,1108.94
1.791,989.09
1.792,863.66
1.793,733.17
1.794,598.20
1.795,459.39
1.796,317.37
1.797,172.85
1.798,26.55
1.799,-120.78
1.800,-268.33
1.801,-415.31
1.802,-560.86
1.803,-704.14
1.804,-844.28
1.805,-980.39
1.806,-1111.58
1.807,-1236.99
1.808,-1355.71
1.809,-1466.89
1.810,-1569.68
1.811,-1663.26
1.812,-1746.83
1.813,-1819.65
1.814,-1881.00
1.815,-1930.24
1.816,-1966.78
1.817,-1990.09
1.818,-1999.74
1.819,-1995.37
1.820,-1976.71
1.821,-1943.58
1.822,-1895.94
1.823,-1833.81
1.824,-1757.37
1.825,-1666.89
1.826,-1562.79
1.827,-1445.60
1.828,-1315.98
1.829,-1174.72
1.830,-1022.76
1.831,-861.14
1.832,-691.04
1.833,-513.75
1.834,-330.69
1.835,-143.37
1.836,46.60
1.837,237.52
1.838,427.63
1.839,615.10
1.840,798.06
1.841,974.63
1.842,1142.91
1.843,1301.03
1.844,1447.15
1.845,1579.50
1.846,1696.39
1.847,1796.23
1.848,1877.58
1.849,1939.14
1.850,1979.81
1.851,1998.68
1.852,1995.06
1.853,1968.53
1.854,1918.89
1.855,1846.26
1.856,1751.03
1.857,1633.89
1.858,1495.83
1.859,1338.16
1.860,1162.48
1.861,970.70
1.862,765.00
1.863,547.83
1.864,321.88
1.865,90.05
1.866,-144.55
1.867,-378.70
1.868,-609.07
1.869,-832.25
1.870,-1044.86
1.871,-1243.54
1.872,-1425.05
1.873,-1586.31
1.874,-1724.44
1.875,-1836.86
1.876,-1921.30
1.877,-1975.89
1.878,-1999.18
1.879,-1990.21
1.880,-1948.51
1.881,-1874.19
1.882,-1767.89
1.883,-1630.86
1.884,-1464.92
1.885,-1272.45
1.886,-1056.41
1.887,-820.24
1.888,-567.90
1.889,-303.73
1.890,-32.43
1.891,241.00
1.892,511.42
1.893,773.57
1.894,1022.21
1.895,1252.24
1.896,1458.79
1.897,1637.31
1.898,1783.73
1.899,1894.54
1.900,1966.86
1.901,1998.58
1.902,1988.40
1.903,1935.86
1.904,1841.47
1.905,1706.65
1.906,1533.74
1.907,1326.03
1.908,1087.67
1.909,823.62
1.910,539.54
1.911,241.71
1.912,-63.13
1.913,-367.88
1.914,-665.33
1.915,-948.23
1.916,-1209.55
1.917,-1442.64
1.918,-1641.37
1.919,-1800.37
1.920,-1915.15
1.921,-1982.23
1.922,-1999.31
1.923,-1965.34
1.924,-1880.54
1.925,-1746.53
1.926,-1566.22
1.927,-1343.86
1.928,-1084.87
1.929,-795.80
1.930,-484.15
1.931,-158.16
1.932,173.35
1.933,501.26
1.934,816.38
1.935,1109.73
1.936,1372.78
1.937,1597.72
1.938,1777.72
1.939,1907.14
1.940,1981.71
1.941,1998.72
1.942,1957.13
1.943,1857.62
1.944,1702.62
1.945,1496.27
1.946,1244.33
1.947,954.03
1.948,633.91
1.949,293.52
1.950,-56.83
1.951,-406.34
1.952,-744.14
1.953,-1059.55
1.954,-1342.48
1.955,-1583.74
1.956,-1775.36
1.957,-1910.86
1.958,-1985.51
1.959,-1996.49
1.960,-1943.02
1.961,-1826.40
1.962,-1650.05
1.963,-1419.38
1.964,-1141.63
1.965,-825.72
1.966,-481.88
1.967,-121.41
1.968,243.74
1.969,601.37
1.970,939.40
1.971,1246.35
1.972,1511.67
1.973,1726.17
1.974,1882.31
1.975,1974.51
1.976,1999.36
1.977,1955.71
1.978,1844.83
1.979,1670.27
1.980,1437.85
1.981,1155.44
1.982,832.66
1.983,480.64
1.984,111.57
1.985,-261.73
1.986,-626.20
1.987,-969.04
1.988,-1278.17
1.989,-1542.67
1.990,-1753.13
1.991,-1902.05
1.992,-1984.07
1.993,-1996.19
1.994,-1937.90
1.995,-1811.17
1.996,-1620.42
1.997,-1372.34
1.998,-1075.68
1.999,-740.92
